Run #1	Run #1
Time (s)	Voltage (V)
0.000	-0.005
0.050	0.005
0.100	0.000
0.150	-0.005
0.200	-0.005
0.250	0.000
0.300	0.010
0.350	-0.015
0.400	0.000
0.450	0.000
0.500	0.005
0.550	0.000
0.600	-0.005
0.650	-0.005
0.700	0.000
0.750	0.000
0.800	0.005
0.850	0.000
0.900	0.000
0.950	-0.005
1.000	0.000
1.050	0.000
1.100	0.000
1.150	-1.611
1.200	-0.093
1.250	0.000
1.300	0.000
1.350	0.000
1.400	0.000
1.450	-0.005
1.500	-0.015
1.550	0.005
1.600	0.000
1.650	0.000
1.700	0.000
1.750	0.000
1.800	0.000
1.850	0.000
1.900	0.000
1.950	0.000
2.000	0.000
2.050	0.000
2.100	0.000
2.150	0.000
2.200	0.000
2.250	0.000
2.300	0.000
2.350	0.000
2.400	0.000
2.450	0.000
2.500	0.000
2.550	0.000
2.600	0.000
2.650	0.000
2.700	0.000
2.750	0.000
2.800	0.000
2.850	0.000
2.900	0.000
2.950	0.000
3.000	0.000
3.050	0.000
3.100	0.000
3.150	0.000
3.200	0.000
3.250	0.000
3.300	0.000
3.350	0.000
3.400	0.000
3.450	0.000
3.500	0.000
3.550	0.000
3.600	0.000
3.650	0.000
3.700	0.000
3.750	-0.005
3.800	0.000
3.850	0.000
3.900	0.000
3.950	0.000
4.000	0.000
4.050	0.000
4.100	-0.010
4.150	0.020
4.200	0.078
4.250	0.068
4.300	-0.049
4.350	-0.010
4.400	-0.020
4.450	-0.010
4.500	0.000
4.550	0.000
4.600	0.000
4.650	0.000
4.700	0.000
4.750	0.000
4.800	0.005
4.850	0.000
4.900	0.005
4.950	0.005
5.000	0.000
5.050	0.000
5.100	0.000
5.150	0.000
5.200	0.000
5.250	0.000
5.300	0.000
5.350	-0.015
5.400	-0.010
5.450	-0.005
5.500	0.000
5.550	0.000
5.600	0.000
5.650	0.000
5.700	0.000
5.750	0.000
5.800	0.000
5.850	0.000
5.900	0.000
5.950	0.000
6.000	0.000
6.050	0.000
6.100	0.000
6.150	0.000
6.200	0.000
6.250	0.000
6.300	-0.005
6.350	0.000
6.400	0.000
6.450	0.000
6.500	0.000
6.550	0.000
6.600	0.000
6.650	0.000
6.700	0.000
6.750	0.000
6.800	0.000
6.850	0.000
6.900	0.000
6.950	0.000
7.000	0.000
7.050	0.000
7.100	0.000
7.150	0.000
7.200	0.000
7.250	0.000
7.300	0.000
7.350	0.000
7.400	0.000
7.450	0.000
7.500	0.000
7.550	0.000
7.600	-0.005
7.650	0.000
7.700	0.005
7.750	0.000
7.800	0.005
7.850	0.000
7.900	0.000
7.950	0.000
8.000	0.000
8.050	0.000
8.100	0.000
8.150	0.000
8.200	0.000
8.250	0.000
8.300	-0.044
8.350	0.020
8.400	0.000
8.450	0.000
8.500	0.000
8.550	-0.005
8.600	-0.005
8.650	-0.005
8.700	0.000
8.750	0.000
8.800	0.005
8.850	0.000
8.900	0.000
8.950	0.000
9.000	0.000
9.050	0.000
9.100	0.000
9.150	0.000
9.200	0.000
9.250	0.000
9.300	0.000
9.350	0.000
9.400	0.000
9.450	0.000
9.500	0.000
9.550	0.000
9.600	0.000
9.650	0.000
9.700	0.000
9.750	0.000
9.800	0.000
9.850	-0.015
9.900	0.000
9.950	0.000
10.000	0.000
10.050	0.005
10.100	0.000
10.150	0.000
10.200	-0.010
10.250	-0.010
10.300	0.000
10.350	0.010
10.400	-0.015
10.450	0.029
10.500	-0.146
10.550	-0.845
10.600	0.684
10.650	0.059
10.700	0.088
10.750	0.688
10.800	-0.015
10.850	0.000
10.900	-0.010
10.950	-0.054
11.000	0.083
11.050	1.372
11.100	-0.537
11.150	0.049
11.200	0.039
11.250	-0.054
11.300	0.137
11.350	0.005
11.400	0.005
11.450	0.000
11.500	0.015
11.550	-0.015
11.600	0.000
11.650	0.903
11.700	-0.356
11.750	0.039
11.800	0.059
11.850	0.010
11.900	0.396
11.950	0.010
12.000	0.010
12.050	0.000
12.100	-0.068
12.150	-1.504
12.200	0.098
12.250	0.488
12.300	0.151
12.350	0.088
12.400	0.034
12.450	-6.460
12.500	0.073
12.550	0.005
12.600	0.000
12.650	-0.039
12.700	0.088
12.750	0.288
12.800	-0.151
12.850	0.005
12.900	-0.093
12.950	-0.093
13.000	-0.044
13.050	0.220
13.100	0.010
13.150	0.005
13.200	-0.005
13.250	-0.107
13.300	0.195
13.350	0.381
13.400	0.078
13.450	-0.117
13.500	0.073
13.550	0.063
13.600	1.753
13.650	0.005
13.700	0.000
13.750	0.000
13.800	-0.020
13.850	-0.015
13.900	0.000
13.950	0.000
14.000	0.000
14.050	-0.005
14.100	0.000
14.150	-0.005
14.200	0.000
14.250	0.024
14.300	0.435
14.350	0.059
14.400	0.171
14.450	0.137
14.500	0.083
14.550	0.044
14.600	0.010
14.650	-0.010
14.700	-0.010
14.750	-0.005
14.800	0.000
14.850	-0.015
14.900	-0.010
14.950	-0.010
15.000	0.000
15.050	-0.005
15.100	0.000
15.150	0.000
15.200	0.000
15.250	0.000
15.300	0.000
15.350	0.000
15.400	0.000
15.450	-0.005
15.500	0.000
15.550	-0.010
15.600	-0.015
15.650	0.000
15.700	0.005
15.750	0.000
15.800	0.000
15.850	0.000
15.900	0.000
15.950	0.000
16.000	0.000
16.050	0.005
16.100	0.000
16.150	0.000
16.200	0.000
16.250	0.000
16.300	0.005
16.350	0.000
16.400	0.010
16.450	0.005
16.500	0.015
16.550	0.010
16.600	0.020
16.650	0.024
16.700	0.010
16.750	0.015
16.800	-0.005
16.850	-0.005
16.900	0.015
16.950	0.010
17.000	0.024
17.050	-0.049
17.100	0.020
17.150	0.049
17.200	0.000
17.250	0.020
17.300	-0.020
17.350	-0.015
17.400	0.005
17.450	0.015
17.500	-0.010
17.550	-0.010
17.600	-0.010
17.650	0.000
17.700	0.020
17.750	0.020
17.800	0.015
17.850	0.015
17.900	-0.034
17.950	-0.015
18.000	0.049
18.050	0.010
18.100	-0.020
18.150	-0.039
18.200	0.005
18.250	-0.005
18.300	-0.029
18.350	-0.044
18.400	-0.029
18.450	0.005
18.500	0.000
18.550	0.005
18.600	0.000
18.650	0.005
18.700	0.015
18.750	0.107
18.800	-0.049
18.850	0.034
18.900	0.020
18.950	0.005
19.000	-0.015
19.050	-0.020
19.100	0.000
19.150	0.020
19.200	-0.005
19.250	0.000
19.300	0.000
19.350	0.000
19.400	0.000
19.450	0.000
19.500	0.000
19.550	0.000
19.600	0.000
19.650	0.000
19.700	0.000
19.750	0.000
19.800	0.000
19.850	-0.005
19.900	0.000
19.950	0.000
20.000	0.005
20.050	0.000
20.100	0.005
20.150	0.000
20.200	0.000
20.250	-0.005
20.300	-0.005
20.350	0.000
20.400	0.000
20.450	0.005
20.500	0.024
20.550	0.005
20.600	-0.010
20.650	-0.029
20.700	0.000
20.750	0.000
20.800	0.024
20.850	0.015
20.900	0.015
20.950	-0.024
21.000	0.010
21.050	-0.005
21.100	0.005
21.150	0.000
21.200	-0.005
21.250	0.000
21.300	-0.010
21.350	0.000
21.400	-0.005
21.450	0.000
21.500	-0.005
21.550	-0.010
21.600	0.000
21.650	0.015
21.700	-0.005
21.750	0.005
21.800	0.005
21.850	0.005
21.900	0.000
21.950	0.010
22.000	0.015
22.050	0.005
22.100	-0.005
22.150	-0.010
22.200	0.020
22.250	-0.010
22.300	-0.005
22.350	-0.010
22.400	-0.005
22.450	0.000
22.500	0.010
22.550	0.000
22.600	0.103
22.650	-0.034
22.700	-0.015
22.750	-0.010
22.800	0.000
22.850	-0.015
22.900	-0.010
22.950	0.005
23.000	0.005
23.050	0.000
23.100	0.000
23.150	0.005
23.200	0.000
23.250	0.005
23.300	-0.010
23.350	-0.005
23.400	-0.005
23.450	-0.010
23.500	0.000
23.550	-0.020
23.600	0.005
23.650	-0.005
23.700	0.005
23.750	0.000
23.800	0.000
23.850	0.000
23.900	0.000
23.950	0.000
24.000	0.000
24.050	0.000
24.100	-0.005
24.150	-0.005
24.200	0.000
24.250	0.000
24.300	0.000
24.350	0.000
24.400	0.000
24.450	0.000
24.500	0.000
24.550	0.000
24.600	-0.005
24.650	0.000
24.700	0.000
24.750	0.000
24.800	-0.005
24.850	0.000
24.900	0.000
24.950	0.000
25.000	0.000
25.050	0.044
25.100	-0.020
25.150	-0.015
25.200	-0.234
25.250	0.063
25.300	0.068
25.350	0.000
25.400	0.000
25.450	-0.049
25.500	-0.015
25.550	0.000
25.600	0.005
25.650	0.034
25.700	0.010
25.750	0.000
25.800	0.000
25.850	0.000
25.900	0.000
25.950	0.020
26.000	-0.015
26.050	0.000
26.100	0.000
26.150	0.005
26.200	0.000
26.250	-0.024
26.300	-0.010
26.350	-0.010
26.400	-0.005
26.450	-0.005
26.500	0.005
26.550	0.020
26.600	0.015
26.650	0.005
26.700	0.015
26.750	0.039
26.800	0.024
26.850	-0.010
26.900	0.000
26.950	-0.024
27.000	0.029
27.050	0.010
27.100	0.000
27.150	-0.005
27.200	0.000
27.250	0.005
27.300	-0.010
27.350	0.000
27.400	0.000
27.450	-0.054
27.500	-0.103
27.550	-0.005
27.600	0.029
27.650	0.059
27.700	0.010
27.750	-0.054
27.800	-0.015
27.850	-0.020
27.900	-0.015
27.950	-0.039
28.000	-0.020
28.050	-0.024
28.100	-0.015
28.150	-0.024
28.200	-0.049
28.250	-0.088
28.300	-0.054
28.350	-0.020
28.400	0.010
28.450	0.015
28.500	0.024
28.550	0.059
28.600	0.088
28.650	0.010
28.700	-0.010
28.750	0.000
28.800	0.005
28.850	0.029
28.900	-0.039
28.950	-0.015
29.000	-0.015
29.050	0.015
29.100	0.024
29.150	-0.049
29.200	-0.034
29.250	-0.039
29.300	0.005
29.350	0.059
29.400	0.054
29.450	0.034
29.500	0.010
29.550	-0.005
29.600	-0.010
29.650	-0.010
29.700	0.000
29.750	0.000
29.800	0.000
29.850	0.005
29.900	0.000
29.950	0.000
30.000	-0.005
30.050	0.000
30.100	0.000
30.150	0.000
30.200	0.000
30.250	0.000
30.300	0.005
30.350	0.000
30.400	0.000
30.450	0.000
30.500	0.156
30.550	-0.010
30.600	0.005
30.650	0.000
30.700	-0.015
30.750	-0.029
30.800	0.098
30.850	0.391
30.900	0.234
30.950	0.117
31.000	0.112
31.050	0.059
31.100	-0.303
31.150	-0.010
31.200	0.000
31.250	0.000
31.300	-0.015
31.350	-0.059
31.400	0.029
31.450	1.626
31.500	-0.078
31.550	0.122
31.600	-0.122
31.650	-0.049
31.700	3.667
31.750	-0.034
31.800	-0.005
31.850	0.000
31.900	-0.010
31.950	0.093
32.000	-1.138
32.050	-0.205
32.100	0.068
32.150	0.239
32.200	0.137
32.250	0.059
32.300	-0.425
32.350	0.029
32.400	0.000
32.450	-0.015
32.500	-0.010
32.550	0.190
32.600	-1.045
32.650	-0.781
32.700	-0.093
32.750	0.044
32.800	0.063
32.850	0.020
32.900	-0.073
32.950	-0.010
33.000	-0.015
33.050	-0.005
33.100	-0.342
33.150	-0.972
33.200	-0.293
33.250	0.415
33.300	-0.039
33.350	0.098
33.400	0.054
33.450	-8.384
33.500	-0.078
33.550	0.005
33.600	-0.015
33.650	0.000
33.700	-0.127
33.750	-0.977
33.800	-0.576
33.850	0.469
33.900	-0.049
33.950	0.054
34.000	0.044
34.050	0.171
34.100	0.063
34.150	0.000
34.200	-0.024
34.250	-0.010
34.300	0.083
34.350	0.171
34.400	-0.581
34.450	-0.039
34.500	-0.107
34.550	-0.039
34.600	-0.010
34.650	-0.464
34.700	-0.015
34.750	0.015
34.800	-0.005
34.850	-0.059
34.900	0.029
34.950	0.425
35.000	-0.049
35.050	-0.132
35.100	-0.181
35.150	-0.107
35.200	-0.073
35.250	0.020
35.300	-0.044
35.350	0.000
35.400	-0.010
35.450	-0.039
35.500	0.459
35.550	0.015
35.600	-0.371
35.650	-0.112
35.700	-0.107
35.750	-0.044
35.800	-0.005
35.850	0.112
35.900	-0.010
35.950	-0.010
36.000	-0.010
36.050	-0.020
36.100	-0.078
36.150	0.142
36.200	0.103
36.250	-0.039
36.300	0.005
36.350	0.000
36.400	0.020
36.450	0.020
36.500	0.010
36.550	-0.010
36.600	-0.010
36.650	-0.010
36.700	0.000
36.750	0.005
36.800	0.005
36.850	0.000
36.900	0.000
36.950	0.000
37.000	0.000
37.050	0.000
37.100	0.000
37.150	-0.005
37.200	-0.005
37.250	0.000
37.300	0.000
37.350	-0.005
37.400	-0.010
37.450	0.005
37.500	0.005
37.550	0.005
37.600	0.000
37.650	0.000
37.700	0.000
37.750	-0.015
37.800	-0.093
37.850	-0.054
37.900	0.288
37.950	-0.059
38.000	-0.034
38.050	0.000
38.100	0.005
38.150	0.005
38.200	0.000
38.250	0.000
38.300	0.000
38.350	0.000
38.400	0.000
38.450	-0.005
38.500	0.000
38.550	0.000
38.600	0.000
38.650	0.000
38.700	-0.005
38.750	0.000
38.800	-0.044
38.850	0.000
38.900	0.000
38.950	0.000
39.000	0.000
39.050	0.005
39.100	0.010
39.150	-0.015
39.200	-0.015
39.250	0.000
39.300	0.000
39.350	0.000
39.400	-0.010
39.450	0.010
39.500	0.029
39.550	0.000
39.600	-0.010
39.650	-0.005
39.700	0.020
39.750	0.000
39.800	0.000
39.850	-0.010
39.900	0.000
39.950	0.000
40.000	0.000
40.050	0.000
40.100	-0.010
40.150	-0.020
40.200	-0.010
40.250	-0.020
40.300	-0.020
40.350	0.010
40.400	0.010
40.450	0.005
40.500	-0.015
40.550	0.000
40.600	0.020
40.650	-0.005
40.700	0.029
40.750	0.044
40.800	-0.005
40.850	0.005
40.900	0.024
40.950	0.010
41.000	-0.005
41.050	0.005
41.100	0.000
41.150	0.000
41.200	0.000
41.250	0.000
41.300	0.000
41.350	0.005
41.400	0.000
41.450	0.005
41.500	0.005
41.550	-0.015
41.600	0.000
41.650	0.000
41.700	0.000
41.750	0.000
41.800	0.000
41.850	0.000
41.900	0.000
41.950	-0.005
42.000	0.000
42.050	0.000
42.100	0.000
42.150	0.000
42.200	0.000
42.250	0.000
42.300	0.000
42.350	0.005
42.400	0.000
42.450	0.000
42.500	-0.010
42.550	0.000
42.600	0.000
42.650	0.000
42.700	0.000
42.750	0.000
42.800	0.000
42.850	0.000
42.900	0.000
42.950	0.000
43.000	0.000
43.050	0.005
43.100	0.005
43.150	-0.005
43.200	-0.005
43.250	-0.010
43.300	0.005
43.350	0.005
43.400	0.005
43.450	-0.015
43.500	-0.005
43.550	0.000
43.600	-0.010
43.650	0.000
43.700	0.020
43.750	-0.005
43.800	0.005
43.850	0.000
43.900	0.005
43.950	0.000
44.000	0.000
44.050	0.000
44.100	0.000
44.150	-0.010
44.200	0.000
44.250	0.000
44.300	0.000
44.350	0.000
44.400	-0.005
44.450	-0.005
44.500	0.000
44.550	0.000
44.600	0.000
44.650	-0.005
44.700	-0.010
44.750	0.000
44.800	0.000
44.850	0.000
44.900	-0.005
44.950	0.000
45.000	-0.005
45.050	-0.005
45.100	-0.015
45.150	-0.029
45.200	-0.039
45.250	-0.010
45.300	0.015
45.350	0.049
45.400	0.000
45.450	-0.005
45.500	-0.020
45.550	0.005
45.600	0.000
45.650	0.000
45.700	0.000
45.750	0.000
45.800	0.000
45.850	0.000
45.900	0.000
45.950	0.000
46.000	0.020
46.050	0.020
46.100	0.000
46.150	0.000
46.200	0.000
46.250	0.000
46.300	0.000
46.350	-0.005
46.400	-0.020
46.450	0.005
46.500	-0.005
46.550	-0.010
46.600	0.000
46.650	0.000
46.700	0.000
46.750	0.000
46.800	0.000
46.850	0.000
46.900	0.000
46.950	0.000
47.000	0.000
47.050	0.000
47.100	0.000
47.150	0.000
47.200	0.000
47.250	0.000
47.300	-0.005
47.350	-0.005
47.400	0.000
47.450	0.010
47.500	-0.005
47.550	-0.010
47.600	0.000
47.650	0.000
47.700	-0.005
47.750	0.000
47.800	0.000
47.850	0.020
47.900	0.005
47.950	0.000
48.000	0.005
48.050	0.015
48.100	0.000
48.150	0.000
48.200	0.000
48.250	0.000
48.300	0.000
48.350	0.000
48.400	-0.005
48.450	0.000
48.500	0.000
48.550	0.000
48.600	0.000
48.650	0.000
48.700	-0.005
48.750	-0.015
48.800	0.000
48.850	-0.010
48.900	0.000
48.950	-0.005
49.000	0.000
49.050	-0.005
49.100	-0.005
49.150	0.000
49.200	0.005
49.250	0.000
49.300	0.000
49.350	0.005
49.400	0.000
49.450	0.000
49.500	0.000
49.550	-0.005
49.600	-0.005
49.650	0.005
49.700	0.005
49.750	-0.005
49.800	-0.010
49.850	0.000
49.900	0.000
49.950	0.000
50.000	0.000
50.050	0.015
50.100	0.000
50.150	0.000
50.200	0.000
50.250	0.000
50.300	0.000
50.350	0.000
50.400	0.000
50.450	0.000
50.500	0.000
50.550	0.005
50.600	0.000
50.650	0.010
50.700	0.010
50.750	0.024
50.800	0.015
50.850	0.010
50.900	0.015
50.950	0.000
51.000	0.015
51.050	0.010
51.100	0.000
51.150	0.005
51.200	0.005
51.250	0.005
51.300	0.000
51.350	0.005
51.400	-0.010
51.450	0.000
51.500	0.005
51.550	0.000
51.600	-0.005
51.650	-0.020
51.700	-0.020
51.750	-0.039
51.800	-0.034
51.850	-0.010
51.900	-0.010
51.950	0.029
52.000	0.024
52.050	0.005
52.100	0.010
52.150	0.024
52.200	0.293
52.250	0.107
52.300	-0.005
52.350	-0.088
52.400	-0.015
52.450	-0.015
52.500	0.010
52.550	-0.024
52.600	-0.005
52.650	-0.044
52.700	-0.020
52.750	0.020
52.800	0.024
52.850	0.010
52.900	0.010
52.950	-0.010
53.000	0.000
53.050	-0.010
53.100	0.034
53.150	-0.015
53.200	-0.005
53.250	0.005
53.300	0.010
53.350	0.000
53.400	0.000
53.450	0.000
53.500	0.000
53.550	0.000
53.600	0.000
53.650	0.000
53.700	0.000
53.750	0.000
53.800	0.005
53.850	0.000
53.900	0.000
53.950	0.000
54.000	-0.024
54.050	-0.005
54.100	0.000
54.150	-0.005
54.200	0.000
54.250	0.000
54.300	-0.005
54.350	0.005
54.400	0.005
54.450	0.005
54.500	-0.005
54.550	-0.005
54.600	-0.005
54.650	-0.005
54.700	0.000
54.750	0.000
54.800	0.000
54.850	0.000
54.900	0.000
54.950	-0.005
55.000	0.000
55.050	-0.005
55.100	0.000
55.150	0.005
55.200	0.000
55.250	-0.005
55.300	0.000
55.350	0.000
55.400	0.000
55.450	0.000
55.500	0.000
55.550	3.047
55.600	-0.073
55.650	0.000
55.700	0.015
55.750	0.005
55.800	0.005
55.850	0.005
55.900	0.718
55.950	0.767
56.000	-0.249
56.050	-0.059
56.100	0.112
56.150	0.034
56.200	-0.078
56.250	0.000
56.300	-0.005
56.350	0.000
56.400	0.000
56.450	-0.112
56.500	0.044
56.550	0.396
56.600	-0.547
56.650	0.044
56.700	0.054
56.750	-0.171
56.800	-0.015
56.850	-0.005
56.900	-0.005
56.950	-0.010
57.000	0.005
57.050	0.142
57.100	0.103
57.150	0.029
57.200	-0.005
57.250	-0.020
57.300	-0.015
57.350	0.039
57.400	-0.005
57.450	-0.005
57.500	0.005
57.550	0.000
57.600	0.024
57.650	0.171
57.700	0.068
57.750	0.005
57.800	-0.020
57.850	-0.010
57.900	0.000
57.950	0.044
58.000	0.005
58.050	0.000
58.100	0.000
58.150	0.020
58.200	0.029
58.250	0.137
58.300	-0.112
58.350	0.078
58.400	-0.039
58.450	0.005
58.500	0.005
58.550	0.054
58.600	0.005
58.650	0.000
58.700	0.005
58.750	0.015
58.800	0.039
58.850	-0.449
58.900	0.430
58.950	0.054
59.000	-0.068
59.050	0.015
59.100	-2.827
59.150	0.020
59.200	0.000
59.250	0.005
59.300	0.010
59.350	0.015
59.400	0.415
59.450	-0.122
59.500	0.088
59.550	-0.034
59.600	0.005
59.650	0.010
59.700	0.024
59.750	-0.020
59.800	0.000
59.850	0.000
59.900	0.000
59.950	0.005
60.000	0.005
60.050	0.039
60.100	-0.054
60.150	-0.015
60.200	0.000
60.250	0.000
60.300	0.000
60.350	0.000
60.400	0.000
60.450	0.000
60.500	0.000
60.550	0.000
60.600	0.000
60.650	0.000
60.700	0.000
60.750	0.000
60.800	0.000
60.850	0.000
60.900	0.000
60.950	0.000
61.000	0.000
61.050	0.000
61.100	0.000
61.150	0.000
61.200	0.000
61.250	0.000
61.300	0.000
61.350	0.000
61.400	0.000
61.450	0.000
61.500	0.000
61.550	0.000
61.600	0.000
61.650	0.000
61.700	0.000
61.750	0.000
61.800	0.000
61.850	0.000
61.900	0.000
61.950	0.000
62.000	0.000
62.050	0.000
62.100	0.005
62.150	0.000
62.200	0.000
62.250	0.000
62.300	0.000
62.350	0.000
62.400	0.000
62.450	0.000
62.500	0.000
62.550	0.000
62.600	0.000
62.650	0.005
62.700	0.015
62.750	0.093
62.800	0.093
62.850	0.000
62.900	0.000
62.950	0.000
63.000	0.000
63.050	0.000
63.100	0.000
63.150	0.000
63.200	0.000
63.250	0.000
63.300	0.000
63.350	0.000
63.400	0.000
63.450	0.000
63.500	0.000
63.550	0.000
63.600	0.000
63.650	0.000
63.700	0.000
63.750	0.000
63.800	0.000
63.850	-0.005
63.900	-0.010
63.950	0.000
64.000	0.000
64.050	0.000
64.100	0.000
64.150	0.000
64.200	0.000
64.250	0.000
64.300	0.000
64.350	0.000
64.400	0.000
64.450	0.000
64.500	0.000
64.550	0.000
64.600	0.000
64.650	0.000
64.700	0.000
64.750	0.000
64.800	0.000
64.850	0.000
64.900	0.000
64.950	0.000
65.000	-0.005
65.050	0.000
65.100	0.000
65.150	0.000
65.200	0.000
65.250	0.000
65.300	0.000
65.350	0.000
65.400	0.000
65.450	0.000
65.500	0.000
65.550	0.000
65.600	0.000
65.650	0.000
65.700	0.000
65.750	0.000
65.800	0.000
65.850	0.000
65.900	0.000
65.950	0.000
66.000	0.000
66.050	0.000
66.100	0.000
66.150	0.000
66.200	0.000
66.250	0.000
66.300	0.000
66.350	0.000
66.400	0.000
66.450	0.000
66.500	0.000
66.550	0.000
66.600	0.000
66.650	0.000
66.700	0.000
66.750	0.024
66.800	0.005
66.850	0.000
66.900	0.000
66.950	0.000
67.000	0.000
67.050	-0.005
67.100	0.000
67.150	0.000
67.200	0.000
67.250	0.000
67.300	0.000
67.350	0.000
67.400	0.000
67.450	0.000
67.500	0.000
67.550	0.000
67.600	0.000
67.650	0.005
67.700	0.000
67.750	0.000
67.800	0.000
67.850	0.000
67.900	0.000
67.950	0.000
68.000	0.005
68.050	0.000
68.100	0.000
68.150	0.000
68.200	0.000
68.250	0.000
68.300	0.000
68.350	0.000
68.400	0.000
68.450	0.000
68.500	0.000
68.550	0.000
68.600	0.000
68.650	0.000
68.700	0.000
68.750	0.000
68.800	0.000
68.850	0.000
68.900	0.000
68.950	0.000
69.000	0.000
69.050	0.000
69.100	0.000
69.150	0.000
69.200	0.000
69.250	0.000
69.300	0.000
69.350	0.000
69.400	0.000
69.450	0.000
69.500	0.000
69.550	0.000
69.600	0.000
69.650	0.000
69.700	0.000
69.750	0.000
69.800	0.000
69.850	0.000
69.900	0.000
69.950	0.000
70.000	0.000
70.050	0.000
70.100	0.000
70.150	0.000
70.200	0.000
70.250	0.000
70.300	0.000
70.350	0.000
70.400	0.000
70.450	0.000
70.500	0.000
70.550	0.000
70.600	0.000
70.650	0.000
